GITM2 log file
## Inputs from UAM.in
# Resart= F
# Eddy coef:    50.000 Eddy P0:     0.010 Eddy P1:     0.005
# Statistical Models Only:  F Apex:  F
# EUV Data:  TFile: 
UA/DataIn/FISM/fismflux_daily_2002.dat                                                                                                                                                                                                                                                                                                                                                                                                                                                                                                                                                                                  
# E-Field Model: weimer05 Auroral Model: FTA
# AMIE: none           
none                                                                                                                                                                                                                                                                                                                                                                                                                                                                                                                                                                                                                    
# Solar Heating:  T Joule Heating:  T
# NO Cooling:  T O Cooling:  T
# Conduction:  T Turbulent Conduction:  T
# Pressure Grad:  T Ion Drag:  T Neutral Drag:  T
# Viscosity:  T Coriolis:  T Gravity:  T
# Ion Chemistry:  T Ion Advection:  T Neutral Chemistry:  T
 
#START
   iStep yyyy mm dd hh mm ss  ms      dt min(T) max(T) mean(T) min(VV) max(VV) mean(VV) F107 F107A By Bz Vx HP HPn HPs HPn_diff HPs_diff HPn_w HPs_w HPn_m HPs_m SubsolarLon SubsolarLat SubsolarVTEC
       2 2002 12 21  0  0  4 105  4.1058    157.61774   1316.94041   1012.01885     -4.34857      5.73571      0.15530    177.9    149.5      6.1     -6.0    531.2     71.9    146.3    146.3 146.25404 146.25404   0.00000   0.00000   0.00000   0.00000   3.14129  -0.40992  58.07374
       3 2002 12 21  0  0  8  38  3.9331    157.65070   1316.75280   1012.14804     -5.92356      4.85711     -0.13441    177.9    149.5      6.2     -6.0    531.0     72.0    146.3    146.3 146.25404 146.25404   0.00000   0.00000   0.00000   0.00000   3.14101  -0.40992  57.96199
       4 2002 12 21  0  0 11 927  3.8884    157.66739   1316.57406   1012.28887     -6.63047      4.60515     -0.30782    177.9    149.5      6.2     -6.0    530.7     72.0    146.3    146.3 146.25404 146.25404   0.00000   0.00000   0.00000   0.00000   3.14073  -0.40992  57.89638
       5 2002 12 21  0  0 15 898  3.9716    157.66509   1316.38816   1012.44032     -7.01870      4.64018     -0.43798    177.9    149.5      6.2     -6.0    530.5     72.0    146.3    146.3 146.25404 146.25404   0.00000   0.00000   0.00000   0.00000   3.14044  -0.40992  57.85588
       6 2002 12 21  0  0 19 880  3.9821    157.65371   1316.21533   1012.59717     -7.27775      4.59934     -0.55991    177.9    149.5      6.3     -6.0    530.2     72.1    146.3    146.3 146.25404 146.25404   0.00000   0.00000   0.00000   0.00000   3.14015  -0.40992  57.80292
       7 2002 12 21  0  0 23 869  3.9888    157.64397   1316.05508   1012.75827     -7.48773      4.56013     -0.67283    177.9    149.5      6.3     -6.0    530.0     72.1    146.3    146.3 146.25404 146.25404   0.00000   0.00000   0.00000   0.00000   3.13986  -0.40992  57.76792
       8 2002 12 21  0  0 27 863  3.9939    157.65039   1315.90922   1012.92260     -7.67920      4.52243     -0.77929    177.9    149.5      6.4     -6.0    529.7     72.2    146.3    146.3 146.25404 146.25404   0.00000   0.00000   0.00000   0.00000   3.13957  -0.40992  57.71314
       9 2002 12 21  0  0 31 861  3.9981    157.67133   1315.77824   1013.08933     -7.86436      4.48828     -0.88132    177.9    149.5      6.4     -6.0    529.5     72.2    146.3    146.3 146.25404 146.25404   0.00000   0.00000   0.00000   0.00000   3.13928  -0.40992  57.67886
      10 2002 12 21  0  0 35 862  4.0009    157.69314   1315.66188   1013.25786     -8.04238      4.45559     -0.98012    177.9    149.5      6.4     -6.0    529.2     72.3    146.3    146.3 146.25404 146.25404   0.00000   0.00000   0.00000   0.00000   3.13898  -0.40992  57.62093
      11 2002 12 21  0  0 39 864  4.0016    157.69664   1315.55916   1013.42755     -8.21460      4.42063     -1.07607    177.9    149.5      6.5     -6.0    529.0     72.3    146.3    146.3 146.25404 146.25404   0.00000   0.00000   0.00000   0.00000   3.13869  -0.40992  57.58720
      12 2002 12 21  0  0 43 865  4.0014    157.69358   1315.47005   1013.59805     -8.38000      4.38411     -1.16813    177.9    149.5      6.5     -6.0    528.7     72.4    146.3    146.3 146.25404 146.25404   0.00000   0.00000   0.00000   0.00000   3.13840  -0.40992  57.52909
      13 2002 12 21  0  0 47 865  4.0002    157.69351   1315.39341   1013.76886     -8.53907      4.35679     -1.25516    177.9    149.5      6.5     -6.0    528.4     72.4    146.3    146.3 146.25404 146.25404   0.00000   0.00000   0.00000   0.00000   3.13811  -0.40992  57.49609
      14 2002 12 21  0  0 51 863  3.9977    157.70559   1315.32663   1013.93970     -8.68974      4.33144     -1.33923    177.9    149.5      6.6     -6.0    528.2     72.5    146.3    146.3 146.25404 146.25404   0.00000   0.00000   0.00000   0.00000   3.13782  -0.40992  57.43745
      15 2002 12 21  0  0 55 857  3.9942    157.72320   1315.26849   1014.11015     -8.83327      4.30617     -1.42165    177.9    149.5      6.6     -6.0    527.9     72.5    146.3    146.3 146.25404 146.25404   0.00000   0.00000   0.00000   0.00000   3.13753  -0.40992  57.40532
      16 2002 12 21  0  0 59 848  3.9903    157.73186   1315.50287   1014.28007     -8.96895      4.27988     -1.50223    177.9    149.5      6.6     -6.0    527.7     72.6    146.3    146.3 146.25404 146.25404   0.00000   0.00000   0.00000   0.00000   3.13724  -0.40992  57.34775
      17 2002 12 21  0  1  3 834  3.9865    157.72898   1316.03964   1014.44915     -9.09726      4.25130     -1.57919    177.9    149.5      6.6     -6.0    527.8     72.5    146.3    146.3 146.25404 146.25404   0.00000   0.00000   0.00000   0.00000   3.13695  -0.40992  57.31672
      18 2002 12 21  0  1  7 817  3.9828    157.72197   1316.56102   1014.61743     -9.22314      4.43326     -1.65163    177.9    149.5      6.6     -6.0    527.9     72.5    149.1    149.1 149.14960 149.14960   0.00000   0.00000   0.00000   0.00000   3.13666  -0.40992  57.25819
      19 2002 12 21  0  1 11 792  3.9754    157.71734   1317.06550   1014.78445     -9.56098      4.77197     -1.72094    177.9    149.5      6.6     -6.0    528.0     72.4    149.1    149.1 149.14960 149.14960   0.00000   0.00000   0.00000   0.00000   3.13637  -0.40992  57.22814
      20 2002 12 21  0  1 15 765  3.9723    157.71719   1317.55402   1014.95031     -9.91871      5.01602     -1.78729    177.9    149.5      6.6     -6.0    528.1     72.4    149.1    149.1 149.14960 149.14960   0.00000   0.00000   0.00000   0.00000   3.13608  -0.40992  57.17055
      21 2002 12 21  0  1 19 734  3.9693    157.72077   1318.02780   1015.11480    -10.27170      5.30103     -1.85051    177.9    149.5      6.6     -6.1    528.3     72.4    149.1    149.1 149.14960 149.14960   0.00000   0.00000   0.00000   0.00000   3.13579  -0.40992  57.14194
      22 2002 12 21  0  1 23 700  3.9665    157.72027   1318.48784   1015.27790    -10.61373      5.72310     -1.90926    177.9    149.5      6.6     -6.1    528.4     72.3    149.1    149.1 149.14960 149.14960   0.00000   0.00000   0.00000   0.00000   3.13551  -0.40992  57.08325
      23 2002 12 21  0  1 27 665  3.9642    157.70866   1318.93492   1015.43946    -10.94183      6.03587     -1.96369    177.9    149.5      6.5     -6.1    528.5     72.3    149.1    149.1 149.14960 149.14960   0.00000   0.00000   0.00000   0.00000   3.13522  -0.40992  57.05612
      24 2002 12 21  0  1 31 627  3.9625    157.69184   1319.36972   1015.59953    -11.26136      6.29209     -2.01401    177.9    149.5      6.5     -6.1    528.6     72.2    149.1    149.1 149.14960 149.14960   0.00000   0.00000   0.00000   0.00000   3.13493  -0.40992  56.99763
      25 2002 12 21  0  1 35 588  3.9614    157.68184   1319.79655   1015.75796    -11.58000      6.81519     -2.06023    177.9    149.5      6.5     -6.1    528.8     72.2    149.1    149.1 149.14960 149.14960   0.00000   0.00000   0.00000   0.00000   3.13464  -0.40992  56.97221
      26 2002 12 21  0  1 39 549  3.9606    157.68164   1320.21686   1015.91480    -11.89983      7.22734     -2.10219    177.9    149.5      6.5     -6.1    528.9     72.1    149.1    149.1 149.14960 149.14960   0.00000   0.00000   0.00000   0.00000   3.13435  -0.40992  56.91185
      27 2002 12 21  0  1 43 509  3.9600    157.68290   1320.62946   1016.06989    -12.21647      7.45902     -2.13960    177.9    149.5      6.5     -6.1    529.0     72.1    149.1    149.1 149.14960 149.14960   0.00000   0.00000   0.00000   0.00000   3.13407  -0.40992  56.88806
      28 2002 12 21  0  1 47 469  3.9596    157.67754   1321.03483   1016.22331    -12.53712      8.05441     -2.17194    177.9    149.5      6.5     -6.1    529.1     72.0    149.1    149.1 149.14960 149.14960   0.00000   0.00000   0.00000   0.00000   3.13378  -0.40992  56.82783
      29 2002 12 21  0  1 51 428  3.9594    157.66226   1321.43333   1016.37492    -12.92207      8.63356     -2.19870    177.9    149.5      6.5     -6.1    529.2     72.0    149.1    149.1 149.14960 149.14960   0.00000   0.00000   0.00000   0.00000   3.13349  -0.40992  56.80567
      30 2002 12 21  0  1 55 388  3.9596    157.64819   1321.82505   1016.52479    -13.29959      9.03858     -2.22032    177.9    149.5      6.5     -6.1    529.4     72.0    149.1    149.1 149.14960 149.14960   0.00000   0.00000   0.00000   0.00000   3.13320  -0.40992  56.74442
      31 2002 12 21  0  1 59 348  3.9600    157.64557   1322.20900   1016.67280    -13.67622      9.44673     -2.23715    177.9    149.5      6.4     -6.1    529.5     71.9    149.1    149.1 149.14960 149.14960   0.00000   0.00000   0.00000   0.00000   3.13291  -0.40992  56.72375
      32 2002 12 21  0  2  3 308  3.9607    157.64779   1322.58640   1016.81904    -14.04511     10.17350     -2.24867    177.9    149.5      6.4     -6.1    529.5     72.0    149.1    149.1 149.14960 149.14960   0.00000   0.00000   0.00000   0.00000   3.13263  -0.40992  56.66357
      33 2002 12 21  0  2  7 270  3.9616    157.64995   1322.95753   1016.96356    -14.40114     10.71135     -2.25504    177.9    149.5      6.4     -6.2    529.5     72.1    148.2    148.2 148.16013 148.16013   0.00000   0.00000   0.00000   0.00000   3.13234  -0.40992  56.64408
      34 2002 12 21  0  2 11 231  3.9611    157.64773   1323.32233   1017.10629    -14.73982     11.27611     -2.25616    177.9    149.5      6.4     -6.2    529.6     72.2    148.2    148.2 148.16013 148.16013   0.00000   0.00000   0.00000   0.00000   3.13205  -0.40992  56.58368
      35 2002 12 21  0  2 15 193  3.9621    157.63842   1323.68112   1017.24714    -15.05807     12.14046     -2.25222    177.9    149.5      6.4     -6.2    529.6     72.3    148.2    148.2 148.16013 148.16013   0.00000   0.00000   0.00000   0.00000   3.13176  -0.40992  56.56550
      36 2002 12 21  0  2 19 156  3.9632    157.62984   1324.03416   1017.38619    -15.39861     12.84245     -2.24398    177.9    149.5      6.4     -6.2    529.6     72.4    148.2    148.2 148.16013 148.16013   0.00000   0.00000   0.00000   0.00000   3.13147  -0.40992  56.50579
      37 2002 12 21  0  2 23 121  3.9642    157.62883   1324.38163   1017.52335    -15.75149     13.28712     -2.23119    177.9    149.5      6.4     -6.2    529.7     72.5    148.2    148.2 148.16013 148.16013   0.00000   0.00000   0.00000   0.00000   3.13118  -0.40992  56.48863
      38 2002 12 21  0  2 27  86  3.9652    157.63369   1324.75219   1017.65871    -16.08728     14.03656     -2.21452    177.9    149.5      6.3     -6.2    529.7     72.7    148.2    148.2 148.16013 148.16013   0.00000   0.00000   0.00000   0.00000   3.13090  -0.40992  56.42877
      39 2002 12 21  0  2 31  52  3.9662    157.63936   1325.47925   1017.79222    -16.53952     14.93138     -2.19381    177.9    149.5      6.3     -6.2    529.7     72.8    148.2    148.2 148.16013 148.16013   0.00000   0.00000   0.00000   0.00000   3.13061  -0.40992  56.41254
      40 2002 12 21  0  2 35  19  3.9672    157.64014   1326.19804   1017.92398    -16.98633     15.60593     -2.16964    177.9    149.5      6.3     -6.3    529.8     72.9    148.2    148.2 148.16013 148.16013   0.00000   0.00000   0.00000   0.00000   3.13032  -0.40992  56.35356
      41 2002 12 21  0  2 38 987  3.9682    157.63896   1326.90842   1018.05396    -17.40098     16.05902     -2.14220    177.9    149.5      6.3     -6.3    529.8     73.0    148.2    148.2 148.16013 148.16013   0.00000   0.00000   0.00000   0.00000   3.13003  -0.40992  56.33842
      42 2002 12 21  0  2 42 957  3.9692    157.63798   1327.61029   1018.18227    -17.91373     17.10634     -2.11191    177.9    149.5      6.3     -6.3    529.8     73.1    148.2    148.2 148.16013 148.16013   0.00000   0.00000   0.00000   0.00000   3.12974  -0.40992  56.27863
      43 2002 12 21  0  2 46 927  3.9700    157.63951   1328.30400   1018.30888    -18.39997     17.97007     -2.07927    177.9    149.5      6.3     -6.3    529.8     73.2    148.2    148.2 148.16013 148.16013   0.00000   0.00000   0.00000   0.00000   3.12945  -0.40992  56.26441
      44 2002 12 21  0  2 50 897  3.9706    157.64606   1328.98882   1018.43396    -18.89156     18.55666     -2.04418    177.9    149.5      6.3     -6.3    529.9     73.3    148.2    148.2 148.16013 148.16013   0.00000   0.00000   0.00000   0.00000   3.12916  -0.40992  56.20532
      45 2002 12 21  0  2 54 868  3.9711    157.65292   1329.66469   1018.55748    -19.45886     19.21821     -2.00692    177.9    149.5      6.2     -6.3    529.9     73.4    148.2    148.2 148.16013 148.16013   0.00000   0.00000   0.00000   0.00000   3.12888  -0.40992  56.19203
      46 2002 12 21  0  2 58 840  3.9715    157.65506   1330.33164   1018.67962    -20.00602     20.27840     -1.96714    177.9    149.5      6.2     -6.4    529.9     73.5    148.2    148.2 148.16013 148.16013   0.00000   0.00000   0.00000   0.00000   3.12859  -0.40992  56.13314
      47 2002 12 21  0  3  2 811  3.9717    157.65589   1330.98969   1018.80039    -20.52420     21.10426     -1.92476    177.9    149.5      6.2     -6.3    530.0     73.7    148.2    148.2 148.16013 148.16013   0.00000   0.00000   0.00000   0.00000   3.12830  -0.40992  56.12074
      48 2002 12 21  0  3  6 783  3.9718    157.65815   1331.64353   1018.92024    -21.00372     21.60187     -1.87975    177.9    149.5      6.2     -6.3    530.1     73.9    152.5    152.5 152.46983 152.46983   0.00000   0.00000   0.00000   0.00000   3.12801  -0.40992  56.06224
      49 2002 12 21  0  3 10 753  3.9698    157.66339   1332.28921   1019.03899    -21.43920     22.66325     -1.83173    177.9    149.5      6.3     -6.3    530.2     74.1    152.5    152.5 152.46983 152.46983   0.00000   0.00000   0.00000   0.00000   3.12772  -0.40992  56.05057
      50 2002 12 21  0  3 14 723  3.9699    157.66917   1332.92688   1019.15689    -21.96015     23.67589     -1.78000    177.9    149.5      6.3     -6.3    530.3     74.4    152.5    152.5 152.46983 152.46983   0.00000   0.00000   0.00000   0.00000   3.12743  -0.40992  55.99380
      51 2002 12 21  0  3 18 693  3.9702    157.67264   1333.55680   1019.27398    -22.49232     24.40701     -1.72434    177.9    149.5      6.3     -6.3    530.4     74.6    152.5    152.5 152.46983 152.46983   0.00000   0.00000   0.00000   0.00000   3.12714  -0.40992  55.98273
      52 2002 12 21  0  3 22 664  3.9704    157.67373   1334.17935   1019.39050    -22.98940     25.11389     -1.66420    177.9    149.5      6.3     -6.2    530.5     74.8    152.5    152.5 152.46983 152.46983   0.00000   0.00000   0.00000   0.00000   3.12685  -0.40992  55.92579
      53 2002 12 21  0  3 26 634  3.9706    157.67537   1334.79523   1019.50655    -23.44305     26.28541     -1.59851    177.9    149.5      6.3     -6.2    530.6     75.0    152.5    152.5 152.46983 152.46983   0.00000   0.00000   0.00000   0.00000   3.12657  -0.40992  55.91541
      54 2002 12 21  0  3 30 605  3.9705    157.67998   1335.40486   1019.62239    -23.84776     27.23070     -1.52665    177.9    149.5      6.3     -6.2    530.7     75.2    152.5    152.5 152.46983 152.46983   0.00000   0.00000   0.00000   0.00000   3.12628  -0.40992  55.85822
      55 2002 12 21  0  3 34 575  3.9704    157.68431   1336.00883   1019.73813    -24.28428     27.85243     -1.44800    177.9    149.5      6.3     -6.2    530.8     75.4    152.5    152.5 152.46983 152.46983   0.00000   0.00000   0.00000   0.00000   3.12599  -0.40992  55.84850
      56 2002 12 21  0  3 38 545  3.9702    157.68557   1336.60792   1019.85405    -24.79169     29.00769     -1.36206    177.9    149.5      6.3     -6.2    530.9     75.6    152.5    152.5 152.46983 152.46983   0.00000   0.00000   0.00000   0.00000   3.12570  -0.40992  55.79243
      57 2002 12 21  0  3 42 515  3.9699    157.68453   1337.20302   1019.97025    -25.25996     30.09201     -1.26799    177.9    149.5      6.3     -6.1    531.0     75.8    152.5    152.5 152.46983 152.46983   0.00000   0.00000   0.00000   0.00000   3.12541  -0.40992  55.78346
      58 2002 12 21  0  3 46 485  3.9697    157.68337   1337.79502   1020.08703    -25.68197     30.91209     -1.16517    177.9    149.5      6.4     -6.1    531.1     76.0    152.5    152.5 152.46983 152.46983   0.00000   0.00000   0.00000   0.00000   3.12512  -0.40992  55.72730
      59 2002 12 21  0  3 50 454  3.9692    157.68323   1338.38486   1020.20450    -26.05135     31.87771     -1.05314    177.9    149.5      6.4     -6.1    531.1     76.2    152.5    152.5 152.46983 152.46983   0.00000   0.00000   0.00000   0.00000   3.12483  -0.40992  55.71894
      60 2002 12 21  0  3 54 423  3.9687    157.68542   1338.97362   1020.32291    -26.50859     33.06442     -0.93196    177.9    149.5      6.4     -6.1    531.2     76.4    152.5    152.5 152.46983 152.46983   0.00000   0.00000   0.00000   0.00000   3.12454  -0.40992  55.66386
      61 2002 12 21  0  3 58 391  3.9682    157.68910   1339.56248   1020.44236    -26.98233     34.02656     -0.80122    177.9    149.5      6.4     -6.0    531.3     76.7    152.5    152.5 152.46983 152.46983   0.00000   0.00000   0.00000   0.00000   3.12426  -0.40992  55.65633
      62 2002 12 21  0  4  2 359  3.9681    157.69018   1340.15261   1020.56310    -27.41181     34.94777     -0.66085    177.9    149.5      6.4     -6.1    531.5     76.8    152.5    152.5 152.46983 152.46983   0.00000   0.00000   0.00000   0.00000   3.12397  -0.40992  55.60045
      63 2002 12 21  0  4  6 327  3.9683    157.68755   1340.73877   1020.68483    -27.78927     36.18544     -0.51126    177.9    149.5      6.3     -6.1    531.6     76.8    163.4    163.4 163.37850 163.37850   0.00000   0.00000   0.00000   0.00000   3.12368  -0.40992  55.59356
      64 2002 12 21  0  4 10 298  3.9710    157.68195   1341.32757   1020.80804    -28.15243     37.22772     -0.35271    177.9    149.5      6.2     -6.1    531.8     76.8    163.4    163.4 163.37850 163.37850   0.00000   0.00000   0.00000   0.00000   3.12339  -0.40992  55.53880
      65 2002 12 21  0  4 14 269  3.9710    157.67769   1341.92041   1020.93273    -28.62619     38.20959     -0.18677    177.9    149.5      6.2     -6.1    531.9     76.9    163.4    163.4 163.37850 163.37850   0.00000   0.00000   0.00000   0.00000   3.12310  -0.40992  55.53270
      66 2002 12 21  0  4 18 240  3.9705    157.67663   1342.51830   1021.05903    -29.05474     39.46220     -0.01393    177.9    149.5      6.1     -6.2    532.1     76.9    163.4    163.4 163.37850 163.37850   0.00000   0.00000   0.00000   0.00000   3.12281  -0.40992  55.47526
      67 2002 12 21  0  4 22 209  3.9698    157.67673   1343.12233   1021.18690    -29.50153     40.53955      0.16488    177.9    149.5      6.1     -6.2    532.2     76.9    163.4    163.4 163.37850 163.37850   0.00000   0.00000   0.00000   0.00000   3.12252  -0.40992  55.46955
      68 2002 12 21  0  4 26 178  3.9689    157.67563   1343.73296   1021.31639    -29.99880     41.62723      0.34868    177.9    149.5      6.0     -6.2    532.4     77.0    163.4    163.4 163.37850 163.37850   0.00000   0.00000   0.00000   0.00000   3.12224  -0.40992  55.41662
      69 2002 12 21  0  4 30 146  3.9680    157.67335   1344.35075   1021.44736    -30.44588     42.86119      0.53656    177.9    149.5      5.9     -6.2    532.5     77.0    163.4    163.4 163.37850 163.37850   0.00000   0.00000   0.00000   0.00000   3.12195  -0.40992  55.41195
      70 2002 12 21  0  4 34 113  3.9672    157.67024   1344.97608   1021.57982    -30.94386     43.93648      0.72714    177.9    149.5      5.9     -6.3    532.7     77.1    163.4    163.4 163.37850 163.37850   0.00000   0.00000   0.00000   0.00000   3.12166  -0.40992  55.35563
      71 2002 12 21  0  4 38  80  3.9666    157.66695   1345.60913   1021.71357    -31.45831     45.16505      0.91917    177.9    149.5      5.8     -6.3    532.8     77.1    163.4    163.4 163.37850 163.37850   0.00000   0.00000   0.00000   0.00000   3.12137  -0.40992  55.35108
      72 2002 12 21  0  4 42  46  3.9663    157.66441   1346.24986   1021.84856    -31.92327     46.36269      1.11144    177.9    149.5      5.8     -6.3    533.0     77.1    163.4    163.4 163.37850 163.37850   0.00000   0.00000   0.00000   0.00000   3.12108  -0.40992  55.29877
      73 2002 12 21  0  4 46  13  3.9665    157.66239   1346.89793   1021.98453    -32.38345     47.51866      1.30277    177.9    149.5      5.7     -6.3    533.2     77.2    163.4    163.4 163.37850 163.37850   0.00000   0.00000   0.00000   0.00000   3.12079  -0.40992  55.29520
      74 2002 12 21  0  4 49 980  3.9668    157.65920   1347.55276   1022.12139    -32.89462     48.78526      1.49211    177.9    149.5      5.7     -6.4    533.3     77.2    163.4    163.4 163.37850 163.37850   0.00000   0.00000   0.00000   0.00000   3.12050  -0.40992  55.23869
      75 2002 12 21  0  4 53 947  3.9672    157.65445   1348.21339   1022.25883    -33.35225     49.96203      1.67904    177.9    149.5      5.6     -6.4    533.5     77.2    163.4    163.4 163.37850 163.37850   0.00000   0.00000   0.00000   0.00000   3.12022  -0.40992  55.23512
      76 2002 12 21  0  4 57 914  3.9675    157.64981   1348.87859   1022.39673    -33.82488     51.26909      1.86251    177.9    149.5      5.5     -6.4    533.6     77.3    163.4    163.4 163.37850 163.37850   0.00000   0.00000   0.00000   0.00000   3.11993  -0.40992  55.18329
      77 2002 12 21  0  5  1 882  3.9676    157.64765   1349.54690   1022.53477    -34.30703     52.49704      2.04212    177.9    149.5      5.5     -6.4    533.7     77.2    163.4    163.4 163.37850 163.37850   0.00000   0.00000   0.00000   0.00000   3.11964  -0.40992  55.18068
      78 2002 12 21  0  5  5 849  3.9675    157.64801   1350.22296   1022.67327    -34.76142     53.82808      2.21749    177.9    149.5      5.5     -6.4    533.8     77.1    165.4    165.4 165.39005 165.39005   0.00000   0.00000   0.00000   0.00000   3.11935  -0.40992  55.12470
      79 2002 12 21  0  5  9 816  3.9668    157.64883   1350.90058   1022.81169    -35.24341     55.11686      2.38827    177.9    149.5      5.4     -6.4    533.9     76.9    165.4    165.4 165.39005 165.39005   0.00000   0.00000   0.00000   0.00000   3.11906  -0.40992  55.12188
      80 2002 12 21  0  5 13 782  3.9661    157.64842   1351.57663   1022.94982    -35.70837     56.46204      2.55434    177.9    149.5      5.4     -6.5    533.9     76.7    165.4    165.4 165.39005 165.39005   0.00000   0.00000   0.00000   0.00000   3.11877  -0.40992  55.07197
      81 2002 12 21  0  5 17 748  3.9654    157.64602   1352.24908   1023.08741    -36.16741     57.80838      2.71574    177.9    149.5      5.4     -6.5    534.0     76.6    165.4    165.4 165.39005 165.39005   0.00000   0.00000   0.00000   0.00000   3.11849  -0.40992  55.06991
      82 2002 12 21  0  5 21 713  3.9649    157.64301   1352.91598   1023.22442    -36.63888     59.15861      2.87256    177.9    149.5      5.4     -6.5    534.1     76.4    165.4    165.4 165.39005 165.39005   0.00000   0.00000   0.00000   0.00000   3.11820  -0.40992  55.01451
      83 2002 12 21  0  5 25 677  3.9647    157.64142   1353.57549   1023.36072    -37.11346     60.55773      3.02488    177.9    149.5      5.3     -6.5    534.1     76.2    165.4    165.4 165.39005 165.39005   0.00000   0.00000   0.00000   0.00000   3.11791  -0.40992  55.01245
      84 2002 12 21  0  5 29 642  3.9649    157.64180   1354.22591   1023.49640    -37.59316     61.94928      3.17322    177.9    149.5      5.3     -6.5    534.2     76.1    165.4    165.4 165.39005 165.39005   0.00000   0.00000   0.00000   0.00000   3.11762  -0.40992  54.96133
      85 2002 12 21  0  5 33 608  3.9654    157.64352   1354.86581   1023.63140    -38.05771     63.35123      3.31775    177.9    149.5      5.3     -6.5    534.2     75.9    165.4    165.4 165.39005 165.39005   0.00000   0.00000   0.00000   0.00000   3.11733  -0.40992  54.96010
      86 2002 12 21  0  5 37 573  3.9658    157.64422   1355.49391   1023.76591    -38.46984     64.76933      3.45882    177.9    149.5      5.3     -6.5    534.3     75.7    165.4    165.4 165.39005 165.39005   0.00000   0.00000   0.00000   0.00000   3.11704  -0.40992  54.90563
      87 2002 12 21  0  5 41 540  3.9662    157.64382   1356.10923   1023.89998    -38.80466     66.19585      3.59637    177.9    149.5      5.2     -6.5    534.4     75.5    165.4    165.4 165.39005 165.39005   0.00000   0.00000   0.00000   0.00000   3.11676  -0.40992  54.90442
      88 2002 12 21  0  5 45 506  3.9666    157.64294   1356.71115   1024.03389    -39.05230     67.61920      3.73054    177.9    149.5      5.2     -6.5    534.4     75.4    165.4    165.4 165.39005 165.39005   0.00000   0.00000   0.00000   0.00000   3.11647  -0.40992  54.85420
      89 2002 12 21  0  5 49 473  3.9668    157.64231   1357.29944   1024.16779    -39.20137     69.03681      3.86149    177.9    149.5      5.2     -6.5    534.5     75.2    165.4    165.4 165.39005 165.39005   0.00000   0.00000   0.00000   0.00000   3.11618  -0.40992  54.85395
      90 2002 12 21  0  5 53 440  3.9670    157.64256   1357.87428   1024.30207    -39.24263     70.49486      3.98939    177.9    149.5      5.1     -6.5    534.6     75.0    165.4    165.4 165.39005 165.39005   0.00000   0.00000   0.00000   0.00000   3.11589  -0.40992  54.79924
      91 2002 12 21  0  5 57 407  3.9670    157.64452   1358.43627   1024.43696    -39.16655     71.90768      4.11398    177.9    149.5      5.1     -6.5    534.6     74.9    165.4    165.4 165.39005 165.39005   0.00000   0.00000   0.00000   0.00000   3.11560  -0.40992  54.79906
      92 2002 12 21  0  6  1 374  3.9668    157.64683   1358.98641   1024.57289    -38.96353     73.26840      4.23546    177.9    149.5      5.2     -6.5    534.8     74.7    165.4    165.4 165.39005 165.39005   0.00000   0.00000   0.00000   0.00000   3.11531  -0.40992  54.74854
      93 2002 12 21  0  6  5 340  3.9666    157.64768   1359.52590   1024.71028    -38.62399     74.57591      4.35338    177.9    149.5      5.3     -6.4    535.0     74.6    159.9    159.9 159.94130 159.94130   0.00000   0.00000   0.00000   0.00000   3.11502  -0.40992  54.74934
      94 2002 12 21  0  6  9 309  3.9683    157.64765   1360.05692   1024.84958    -38.13855     75.83066      4.46768    177.9    149.5      5.5     -6.3    535.2     74.5    159.9    159.9 159.94130 159.94130   0.00000   0.00000   0.00000   0.00000   3.11474  -0.40992  54.69514
      95 2002 12 21  0  6 13 277  3.9683    157.64752   1360.58142   1024.99102    -37.49877     77.03305      4.57805    177.9    149.5      5.7     -6.2    535.5     74.4    159.9    159.9 159.94130 159.94130   0.00000   0.00000   0.00000   0.00000   3.11445  -0.40992  54.69561
      96 2002 12 21  0  6 17 245  3.9682    157.64787   1361.10165   1025.13507    -36.69684     78.18452      4.68375    177.8    149.5      5.9     -6.2    535.7     74.3    159.9    159.9 159.94130 159.94130   0.00000   0.00000   0.00000   0.00000   3.11416  -0.40992  54.64808
      97 2002 12 21  0  6 21 213  3.9683    157.64976   1361.62145   1025.28199    -35.72594     79.28747      4.78485    177.8    149.5      6.0     -6.1    536.0     74.2    159.9    159.9 159.94130 159.94130   0.00000   0.00000   0.00000   0.00000   3.11387  -0.40992  54.64964
      98 2002 12 21  0  6 25 182  3.9685    157.65228   1362.14296   1025.43217    -34.58057     80.34509      4.88096    177.8    149.5      6.2     -6.0    536.2     74.1    159.9    159.9 159.94130 159.94130   0.00000   0.00000   0.00000   0.00000   3.11358  -0.40992  54.59536
      99 2002 12 21  0  6 29 151  3.9688    157.65315   1362.66531   1025.58578    -33.25678     81.36100      4.97178    177.8    149.5      6.4     -5.9    536.4     74.0    159.9    159.9 159.94130 159.94130   0.00000   0.00000   0.00000   0.00000   3.11329  -0.40992  54.59681
     100 2002 12 21  0  6 33 120  3.9692    157.65346   1363.19362   1025.74311    -31.75238     82.33914      5.05695    177.8    149.5      6.5     -5.8    536.7     73.9    159.9    159.9 159.94130 159.94130   0.00000   0.00000   0.00000   0.00000   3.11300  -0.40992  54.54851
     101 2002 12 21  0  6 37  90  3.9696    157.65382   1363.73033   1025.90419    -30.06721     83.28345      5.13635    177.8    149.5      6.7     -5.8    536.9     73.8    159.9    159.9 159.94130 159.94130   0.00000   0.00000   0.00000   0.00000   3.11272  -0.40992  54.55122
     102 2002 12 21  0  6 41  59  3.9698    157.65497   1364.27754   1026.06915    -28.20331     84.19771      5.20917    177.8    149.5      6.9     -5.7    537.2     73.7    159.9    159.9 159.94130 159.94130   0.00000   0.00000   0.00000   0.00000   3.11243  -0.40992  54.49663
     103 2002 12 21  0  6 45  29  3.9698    157.65637   1364.83703   1026.23785    -26.16505     85.08570      5.27562    177.8    149.5      7.1     -5.6    537.4     73.6    159.9    159.9 159.94130 159.94130   0.00000   0.00000   0.00000   0.00000   3.11214  -0.40992  54.49883
     104 2002 12 21  0  6 48 999  3.9697    157.65724   1365.41023   1026.41027    -23.95914     85.95088      5.33510    177.8    149.5      7.2     -5.5    537.6     73.5    159.9    159.9 159.94130 159.94130   0.00000   0.00000   0.00000   0.00000   3.11185  -0.40992  54.45423
     105 2002 12 21  0  6 52 968  3.9696    157.65754   1365.99813   1026.58608    -21.59465     86.79621      5.38747    177.8    149.5      7.4     -5.5    537.9     73.4    159.9    159.9 159.94130 159.94130   0.00000   0.00000   0.00000   0.00000   3.11156  -0.40992  54.45767
     106 2002 12 21  0  6 56 938  3.9694    157.65783   1366.60124   1026.76507    -19.08301     87.62387      5.43249    177.8    149.5      7.6     -5.4    538.1     73.3    159.9    159.9 159.94130 159.94130   0.00000   0.00000   0.00000   0.00000   3.11127  -0.40992  54.40463
     107 2002 12 21  0  7  0 907  3.9693    157.65862   1367.21956   1026.94675    -16.43792     88.43526      5.46996    177.8    149.5      7.7     -5.3    538.3     73.2    159.9    159.9 159.94130 159.94130   0.00000   0.00000   0.00000   0.00000   3.11098  -0.40992  54.40798
     108 2002 12 21  0  7  4 876  3.9692    157.65986   1367.83703   1027.13024    -13.72812     89.23087      5.49993    177.8    149.5      7.7     -5.4    538.3     73.2    152.5    152.5 152.54909 152.54909   0.00000   0.00000   0.00000   0.00000   3.11069  -0.40992  54.36155
     109 2002 12 21  0  7  8 841  3.9642    157.66038   1368.46263   1027.31482    -14.44385     90.00788      5.52152    177.8    149.5      7.6     -5.4    538.3     73.1    152.5    152.5 152.54909 152.54909   0.00000   0.00000   0.00000   0.00000   3.11041  -0.40992  54.36589
     110 2002 12 21  0  7 12 805  3.9642    157.66028   1369.09715   1027.50044    -15.01222     90.76704      5.53636    177.8    149.5      7.6     -5.4    538.3     73.1    152.5    152.5 152.54909 152.54909   0.00000   0.00000   0.00000   0.00000   3.11012  -0.40992  54.31335
     111 2002 12 21  0  7 16 769  3.9642    157.65974   1369.73989   1027.68634    -15.39162     91.50607      5.54374    177.8    149.5      7.6     -5.5    538.3     73.0    152.5    152.5 152.54909 152.54909   0.00000   0.00000   0.00000   0.00000   3.10983  -0.40992  54.31731
     112 2002 12 21  0  7 20 733  3.9641    157.65907   1370.38834   1027.87189    -15.57236     92.22195      5.54379    177.8    149.5      7.5     -5.5    538.3     72.9    152.5    152.5 152.54909 152.54909   0.00000   0.00000   0.00000   0.00000   3.10954  -0.40992  54.27441
     113 2002 12 21  0  7 24 697  3.9640    157.65853   1371.03951   1028.05621    -16.03912     92.91090      5.53633    177.8    149.5      7.5     -5.5    538.3     72.9    152.5    152.5 152.54909 152.54909   0.00000   0.00000   0.00000   0.00000   3.10925  -0.40992  54.27969
     114 2002 12 21  0  7 28 661  3.9638    157.65820   1371.69007   1028.23857    -16.79246     93.56842      5.52178    177.8    149.5      7.5     -5.6    538.3     72.8    152.5    152.5 152.54909 152.54909   0.00000   0.00000   0.00000   0.00000   3.10897  -0.40992  54.22752
     115 2002 12 21  0  7 32 625  3.9637    157.65813   1372.33645   1028.41806    -17.36597     94.18950      5.50011    177.8    149.5      7.5     -5.6    538.3     72.7    152.5    152.5 152.54909 152.54909   0.00000   0.00000   0.00000   0.00000   3.10868  -0.40992  54.23271
     116 2002 12 21  0  7 36 588  3.9636    157.65804   1372.97488   1028.59393    -17.72343     94.76865      5.47152    177.8    149.5      7.4     -5.6    538.3     72.7    152.5    152.5 152.54909 152.54909   0.00000   0.00000   0.00000   0.00000   3.10839  -0.40992  54.18806
     117 2002 12 21  0  7 40 552  3.9637    157.65735   1373.60146   1028.76531    -17.85272     95.30007      5.43621    177.8    149.5      7.4     -5.7    538.3     72.6    152.5    152.5 152.54909 152.54909   0.00000   0.00000   0.00000   0.00000   3.10810  -0.40992  54.19448
     118 2002 12 21  0  7 44 516  3.9637    157.65572   1374.21225   1028.93148    -17.76865     95.77779      5.39421    177.8    149.5      7.4     -5.7    538.3     72.5    152.5    152.5 152.54909 152.54909   0.00000   0.00000   0.00000   0.00000   3.10781  -0.40992  54.14231
     119 2002 12 21  0  7 48 480  3.9638    157.65398   1374.80330   1029.09162    -18.51601     96.19572      5.34587    177.8    149.5      7.3     -5.7    538.3     72.5    152.5    152.5 152.54909 152.54909   0.00000   0.00000   0.00000   0.00000   3.10752  -0.40992  54.14837
     120 2002 12 21  0  7 52 443  3.9639    157.65309   1375.37076   1029.24510    -19.12430     96.54794      5.29132    177.8    149.5      7.3     -5.8    538.3     72.4    152.5    152.5 152.54909 152.54909   0.00000   0.00000   0.00000   0.00000   3.10724  -0.40992  54.10552
     121 2002 12 21  0  7 56 407  3.9639    157.65306   1375.91095   1029.39120    -19.50537     96.82873      5.23070    177.8    149.5      7.3     -5.8    538.3     72.4    152.5    152.5 152.54909 152.54909   0.00000   0.00000   0.00000   0.00000   3.10695  -0.40992  54.11290
     122 2002 12 21  0  8  0 371  3.9637    157.65280   1376.42039   1029.52943    -19.63155     97.03266      5.16422    177.8    149.5      7.2     -5.8    538.3     72.3    152.5    152.5 152.54909 152.54909   0.00000   0.00000   0.00000   0.00000   3.10666  -0.40992  54.05946
     123 2002 12 21  0  8  4 334  3.9633    157.65168   1376.90763   1029.66002    -19.51902     97.15503      5.09204    177.8    149.5      7.2     -5.8    537.8     72.4    149.4    149.4 149.37567 149.37567   0.00000   0.00000   0.00000   0.00000   3.10637  -0.40992  54.06606
     124 2002 12 21  0  8  8 292  3.9576    157.65019   1377.36101   1029.78191    -19.90074     97.19108      5.01381    177.8    149.5      7.3     -5.8    537.4     72.4    149.4    149.4 149.37567 149.37567   0.00000   0.00000   0.00000   0.00000   3.10608  -0.40992  54.02638
     125 2002 12 21  0  8 12 249  3.9572    157.64907   1377.77653   1029.89478    -20.49279     97.13809      4.93127    177.8    149.5      7.3     -5.8    537.0     72.5    149.4    149.4 149.37567 149.37567   0.00000   0.00000   0.00000   0.00000   3.10580  -0.40992  54.03435
     126 2002 12 21  0  8 16 206  3.9570    157.64879   1378.15236   1029.99841    -20.86140     96.99281      4.84388    177.8    149.5      7.3     -5.8    536.5     72.5    149.4    149.4 149.37567 149.37567   0.00000   0.00000   0.00000   0.00000   3.10551  -0.40992  53.98046
     127 2002 12 21  0  8 20 163  3.9570    157.64882   1378.48696   1030.09253    -20.97479     96.75299      4.75185    177.8    149.5      7.3     -5.8    536.1     72.6    149.4    149.4 149.37567 149.37567   0.00000   0.00000   0.00000   0.00000   3.10522  -0.40992  53.98738
     128 2002 12 21  0  8 24 120  3.9570    157.64891   1378.77927   1030.17714    -20.83182     96.41711      4.65575    177.8    149.5      7.3     -5.8    535.7     72.7    149.4    149.4 149.37567 149.37567   0.00000   0.00000   0.00000   0.00000   3.10493  -0.40992  53.94963
     129 2002 12 21  0  8 28  77  3.9572    157.64880   1379.02866   1030.25216    -20.45248     95.98443      4.55589    177.8    149.5      7.3     -5.8    535.3     72.7    149.4    149.4 149.37567 149.37567   0.00000   0.00000   0.00000   0.00000   3.10464  -0.40992  53.95815
     130 2002 12 21  0  8 32  35  3.9573    157.64819   1379.23495   1030.31774    -20.58141     95.45499      4.45231    177.8    149.5      7.3     -5.8    534.8     72.8    149.4    149.4 149.37567 149.37567   0.00000   0.00000   0.00000   0.00000   3.10436  -0.40992  53.90352
     131 2002 12 21  0  8 35 992  3.9574    157.64744   1379.39840   1030.37393    -20.98075     94.82957      4.34520    177.8    149.5      7.3     -5.8    534.4     72.8    149.4    149.4 149.37567 149.37567   0.00000   0.00000   0.00000   0.00000   3.10407  -0.40992  53.91081
     132 2002 12 21  0  8 39 949  3.9574    157.64703   1379.51966   1030.42105    -21.15569     94.10973      4.23506    177.8    149.5      7.3     -5.7    534.0     72.9    149.4    149.4 149.37567 149.37567   0.00000   0.00000   0.00000   0.00000   3.10378  -0.40992  53.87442
     133 2002 12 21  0  8 43 907  3.9572    157.64685   1379.59982   1030.45928    -21.08025     93.29775      4.12214    177.8    149.5      7.3     -5.7    533.6     73.0    149.4    149.4 149.37567 149.37567   0.00000   0.00000   0.00000   0.00000   3.10349  -0.40992  53.88345
     134 2002 12 21  0  8 47 864  3.9570    157.64697   1379.64034   1030.48907    -20.75787     92.39652      4.00658    177.8    149.5      7.3     -5.7    533.2     73.0    149.4    149.4 149.37567 149.37567   0.00000   0.00000   0.00000   0.00000   3.10321  -0.40992  53.82853
     135 2002 12 21  0  8 51 820  3.9567    157.64716   1379.64304   1030.51071    -20.26329     91.40956      3.88877    177.8    149.5      7.4     -5.7    532.7     73.1    149.4    149.4 149.37567 149.37567   0.00000   0.00000   0.00000   0.00000   3.10292  -0.40992  53.83623
     136 2002 12 21  0  8 55 777  3.9565    157.64721   1379.61007   1030.52471    -20.71934     90.34095      3.76910    177.8    149.5      7.4     -5.7    532.3     73.1    149.4    149.4 149.37567 149.37567   0.00000   0.00000   0.00000   0.00000   3.10263  -0.40992  53.80062
     137 2002 12 21  0  8 59 733  3.9565    157.64708   1379.54385   1030.53147    -20.98106     89.19528      3.64756    177.8    149.5      7.4     -5.7    531.9     73.2    149.4    149.4 149.37567 149.37567   0.00000   0.00000   0.00000   0.00000   3.10234  -0.40992  53.81000
     138 2002 12 21  0  9  3 690  3.9564    157.64691   1379.44706   1030.53156    -21.02374     87.97753      3.52448    177.8    149.5      7.3     -5.7    531.6     73.2    149.4    149.4 149.37567 149.37567   0.00000   0.00000   0.00000   0.00000   3.10205  -0.40992  53.75485
     139 2002 12 21  0  9  7 646  3.9565    157.64696   1379.31913   1030.52535    -20.83926     86.69309      3.40032    177.8    149.5      7.3     -5.7    531.3     73.3    150.7    150.7 150.72421 150.72421   0.00000   0.00000   0.00000   0.00000   3.10177  -0.40992  53.76286
     140 2002 12 21  0  9 11 608  3.9614    157.64745   1379.16488   1030.51339    -20.44092     85.34664      3.27584    177.8    149.5      7.2     -5.7    531.0     73.3    150.7    150.7 150.72421 150.72421   0.00000   0.00000   0.00000   0.00000   3.10148  -0.40992  53.72831
     141 2002 12 21  0  9 15 569  3.9614    157.64871   1378.98883   1030.49620    -20.11864     83.94464      3.14971    177.8    149.5      7.2     -5.7    530.7     73.4    150.7    150.7 150.72421 150.72421   0.00000   0.00000   0.00000   0.00000   3.10119  -0.40992  53.73792
     142 2002 12 21  0  9 19 531  3.9615    157.64948   1378.79402   1030.47446    -20.49505     82.49343      3.02345    177.8    149.5      7.1     -5.7    530.4     73.4    150.7    150.7 150.72421 150.72421   0.00000   0.00000   0.00000   0.00000   3.10090  -0.40992  53.68420
     143 2002 12 21  0  9 23 492  3.9616    157.64950   1378.58380   1030.44863    -20.68921     80.99922      2.89683    177.8    149.5      7.1     -5.6    530.2     73.4    150.7    150.7 150.72421 150.72421   0.00000   0.00000   0.00000   0.00000   3.10061  -0.40992  53.69284
     144 2002 12 21  0  9 27 454  3.9616    157.64936   1378.36147   1030.41933    -20.68485     79.46822      2.77041    177.8    149.5      7.0     -5.6    529.9     73.5    150.7    150.7 150.72421 150.72421   0.00000   0.00000   0.00000   0.00000   3.10033  -0.40992  53.65566
     145 2002 12 21  0  9 31 415  3.9616    157.64934   1378.13035   1030.38701    -20.47931     77.90664      2.64419    177.8    149.5      7.0     -5.6    529.6     73.5    150.7    150.7 150.72421 150.72421   0.00000   0.00000   0.00000   0.00000   3.10004  -0.40992  53.66556
     146 2002 12 21  0  9 35 377  3.9615    157.64988   1377.89366   1030.35226    -20.09418     76.32063      2.51854    177.8    149.5      6.9     -5.6    529.3     73.5    150.7    150.7 150.72421 150.72421   0.00000   0.00000   0.00000   0.00000   3.09975  -0.40992  53.61513
     147 2002 12 21  0  9 39 338  3.9613    157.65144   1377.65454   1030.31549    -20.35228     74.71605      2.39362    177.8    149.5      6.9     -5.6    529.0     73.6    150.7    150.7 150.72421 150.72421   0.00000   0.00000   0.00000   0.00000   3.09946  -0.40992  53.62447
     148 2002 12 21  0  9 43 299  3.9612    157.65269   1377.41601   1030.27724    -20.64285     73.09807      2.26965    177.8    149.5      6.8     -5.6    528.7     73.6    150.7    150.7 150.72421 150.72421   0.00000   0.00000   0.00000   0.00000   3.09917  -0.40992  53.58340
     149 2002 12 21  0  9 47 260  3.9611    157.65286   1377.18092   1030.23789    -20.76036     71.47216      2.14683    177.8    149.5      6.8     -5.6    528.4     73.7    150.7    150.7 150.72421 150.72421   0.00000   0.00000   0.00000   0.00000   3.09889  -0.40992  53.59358
     150 2002 12 21  0  9 51 221  3.9610    157.65275   1376.95196   1030.19794    -20.70074     69.84402      2.02537    177.8    149.5      6.7     -5.6    528.1     73.7    150.7    150.7 150.72421 150.72421   0.00000   0.00000   0.00000   0.00000   3.09860  -0.40992  53.54616
     151 2002 12 21  0  9 55 182  3.9610    157.65270   1376.73161   1030.15770    -20.47682     68.21883      1.90550    177.8    149.5      6.7     -5.6    527.8     73.7    150.7    150.7 150.72421 150.72421   0.00000   0.00000   0.00000   0.00000   3.09831  -0.40992  53.55597
     152 2002 12 21  0  9 59 143  3.9610    157.65296   1376.52214   1030.11764    -20.38399     66.60134      1.78735    177.8    149.5      6.6     -5.6    527.5     73.8    150.7    150.7 150.72421 150.72421   0.00000   0.00000   0.00000   0.00000   3.09802  -0.40992  53.51522
