GITM2 log file
## Inputs from UAM.in
# Resart= T
# Eddy coef:    50.000 Eddy P0:     0.010 Eddy P1:     0.005
# Statistical Models Only:  F Apex:  F
# EUV Data:  TFile: 
UA/DataIn/FISM/fismflux_daily_2002.dat                                                                                                                                                                                                                                                                                                                                                                                                                                                                                                                                                                                  
# E-Field Model: weimer05 Auroral Model: FTA
# AMIE: none           
none                                                                                                                                                                                                                                                                                                                                                                                                                                                                                                                                                                                                                    
# Solar Heating:  T Joule Heating:  T
# NO Cooling:  T O Cooling:  T
# Conduction:  T Turbulent Conduction:  T
# Pressure Grad:  T Ion Drag:  T Neutral Drag:  T
# Viscosity:  T Coriolis:  T Gravity:  T
# Ion Chemistry:  T Ion Advection:  T Neutral Chemistry:  T
 
#START
   iStep yyyy mm dd hh mm ss  ms      dt min(T) max(T) mean(T) min(VV) max(VV) mean(VV) F107 F107A By Bz Vx HP HPn HPs HPn_diff HPs_diff HPn_w HPs_w HPn_m HPs_m SubsolarLon SubsolarLat SubsolarVTEC
     154 2002 12 21  0 10  3 961  3.9613    157.65409   1376.14842   1030.06310    -20.68422     64.61580      1.63799    177.8    149.5      6.6     -5.5    527.2     73.8    273.4    273.4 273.36622 273.36622   0.00000   0.00000   0.00000   0.00000   3.09767  -0.40992  53.52300
     155 2002 12 21  0 10  8  61  4.1003    157.65434   1375.92194   1030.02092    -20.77274     62.89033      1.53657    177.8    149.5      6.6     -5.4    526.9     73.9    151.9    151.9 151.86632 151.86632   0.00000   0.00000   0.00000   0.00000   3.09737  -0.40992  53.52748
     156 2002 12 21  0 10 11 874  3.8131    157.65489   1375.76468   1029.98223    -20.70656     61.28323      1.38484    177.8    149.5      6.6     -5.3    526.6     74.0    151.9    151.9 151.86632 151.86632   0.00000   0.00000   0.00000   0.00000   3.09710  -0.40992  53.52249
     157 2002 12 21  0 10 15 804  3.9301    157.65476   1375.59320   1029.94600    -20.51515     59.69049      1.29512    177.8    149.5      6.6     -5.3    526.3     74.1    151.9    151.9 151.86632 151.86632   0.00000   0.00000   0.00000   0.00000   3.09681  -0.40992  53.52557
     158 2002 12 21  0 10 19 746  3.9412    157.65491   1375.44839   1029.91100    -20.57437     58.12117      1.19149    177.8    149.5      6.6     -5.2    526.0     74.1    151.9    151.9 151.86632 151.86632   0.00000   0.00000   0.00000   0.00000   3.09652  -0.40992  53.50907
     159 2002 12 21  0 10 23 699  3.9539    157.65544   1375.32216   1029.87790    -20.71290     56.58310      1.09050    177.8    149.5      6.6     -5.1    525.7     74.2    151.9    151.9 151.86632 151.86632   0.00000   0.00000   0.00000   0.00000   3.09624  -0.40992  53.51347
     160 2002 12 21  0 10 27 662  3.9624    157.65593   1375.21510   1029.84689    -20.72545     55.07885      0.99170    177.8    149.5      6.6     -5.0    525.4     74.3    151.9    151.9 151.86632 151.86632   0.00000   0.00000   0.00000   0.00000   3.09595  -0.40992  53.47696
     161 2002 12 21  0 10 31 630  3.9679    157.65605   1375.12753   1029.81817    -20.61553     53.61069      0.89518    177.8    149.5      6.5     -4.9    525.1     74.3    151.9    151.9 151.86632 151.86632   0.00000   0.00000   0.00000   0.00000   3.09566  -0.40992  53.47891
     162 2002 12 21  0 10 35 601  3.9709    157.65605   1375.06007   1029.79193    -20.49384     52.18025      0.80135    177.8    149.5      6.5     -4.9    524.9     74.4    151.9    151.9 151.86632 151.86632   0.00000   0.00000   0.00000   0.00000   3.09537  -0.40992  53.44763
     163 2002 12 21  0 10 39 573  3.9724    157.65606   1375.01292   1029.76831    -20.61116     50.78857      0.71069    177.8    149.5      6.5     -4.8    524.6     74.5    151.9    151.9 151.86632 151.86632   0.00000   0.00000   0.00000   0.00000   3.09508  -0.40992  53.45178
     164 2002 12 21  0 10 43 546  3.9728    157.65618   1374.98602   1029.74747    -20.60358     49.43617      0.62336    177.8    149.5      6.5     -4.7    524.3     74.5    151.9    151.9 151.86632 151.86632   0.00000   0.00000   0.00000   0.00000   3.09479  -0.40992  53.40924
     165 2002 12 21  0 10 47 519  3.9727    157.65659   1374.97910   1029.72949    -20.47791     48.12321      0.53938    177.8    149.5      6.5     -4.6    524.0     74.6    151.9    151.9 151.86632 151.86632   0.00000   0.00000   0.00000   0.00000   3.09450  -0.40992  53.41621
     166 2002 12 21  0 10 51 491  3.9723    157.65684   1374.99166   1029.71449    -20.45283     46.84955      0.45900    177.8    149.5      6.5     -4.5    523.7     74.7    151.9    151.9 151.86632 151.86632   0.00000   0.00000   0.00000   0.00000   3.09421  -0.40992  53.38981
     167 2002 12 21  0 10 55 463  3.9717    157.65692   1375.02311   1029.70254    -20.39688     45.61479      0.38250    177.8    149.5      6.5     -4.5    523.4     74.7    151.9    151.9 151.86632 151.86632   0.00000   0.00000   0.00000   0.00000   3.09393  -0.40992  53.39702
     168 2002 12 21  0 10 59 434  3.9711    157.65690   1375.07270   1029.69374    -20.24040     44.41839      0.30985    177.8    149.5      6.5     -4.4    523.1     74.8    151.9    151.9 151.86632 151.86632   0.00000   0.00000   0.00000   0.00000   3.09364  -0.40992  53.35616
     169 2002 12 21  0 11  3 404  3.9706    157.65686   1375.13953   1029.68813    -20.13847     43.25965      0.24113    177.8    149.5      6.5     -4.4    523.3     75.0    151.9    151.9 151.86632 151.86632   0.00000   0.00000   0.00000   0.00000   3.09335  -0.40992  53.36279
     170 2002 12 21  0 11  7 374  3.9701    157.65683   1375.19490   1029.68438    -19.97158     42.13733      0.17623    177.8    149.5      6.5     -4.5    523.6     75.1    154.4    154.4 154.35786 154.35786   0.00000   0.00000   0.00000   0.00000   3.09306  -0.40992  53.33876
     171 2002 12 21  0 11 11 366  3.9913    157.65677   1375.25754   1029.68339    -19.80162     41.04664      0.11825    177.8    149.5      6.5     -4.6    523.9     75.3    154.4    154.4 154.35786 154.35786   0.00000   0.00000   0.00000   0.00000   3.09277  -0.40992  53.34634
     172 2002 12 21  0 11 15 357  3.9910    157.65673   1375.33311   1029.68544    -19.59496     39.98862      0.06099    177.8    149.5      6.5     -4.7    524.2     75.4    154.4    154.4 154.35786 154.35786   0.00000   0.00000   0.00000   0.00000   3.09248  -0.40992  53.30547
     173 2002 12 21  0 11 19 348  3.9908    157.65668   1375.41886   1029.69076    -19.37322     38.96366      0.00754    177.8    149.5      6.5     -4.8    524.5     75.6    154.4    154.4 154.35786 154.35786   0.00000   0.00000   0.00000   0.00000   3.09219  -0.40992  53.31726
     174 2002 12 21  0 11 23 338  3.9906    157.65663   1375.51360   1029.69943    -19.12990     37.97082     -0.04164    177.8    149.5      6.5     -4.9    524.9     75.8    154.4    154.4 154.35786 154.35786   0.00000   0.00000   0.00000   0.00000   3.09190  -0.40992  53.29300
     175 2002 12 21  0 11 27 329  3.9905    157.65661   1375.61612   1029.71150    -18.87058     37.00915     -0.08692    177.8    149.5      6.6     -5.0    525.2     75.9    154.4    154.4 154.35786 154.35786   0.00000   0.00000   0.00000   0.00000   3.09161  -0.40992  53.30090
     176 2002 12 21  0 11 31 319  3.9904    157.65667   1375.72528   1029.72701    -18.76046     36.07780     -0.12846    177.8    149.5      6.6     -5.1    525.5     76.1    154.4    154.4 154.35786 154.35786   0.00000   0.00000   0.00000   0.00000   3.09132  -0.40992  53.26111
     177 2002 12 21  0 11 35 309  3.9902    157.65681   1375.84001   1029.74599    -18.82138     35.17596     -0.16620    177.8    149.5      6.6     -5.2    525.8     76.3    154.4    154.4 154.35786 154.35786   0.00000   0.00000   0.00000   0.00000   3.09103  -0.40992  53.26905
     178 2002 12 21  0 11 39 299  3.9901    157.65700   1375.95933   1029.76847    -18.86219     34.30298     -0.20000    177.8    149.5      6.6     -5.3    526.1     76.4    154.4    154.4 154.35786 154.35786   0.00000   0.00000   0.00000   0.00000   3.09074  -0.40992  53.24533
     179 2002 12 21  0 11 43 289  3.9900    157.65707   1376.08243   1029.79446    -18.90632     33.45862     -0.23017    177.8    149.5      6.6     -5.4    526.4     76.6    154.4    154.4 154.35786 154.35786   0.00000   0.00000   0.00000   0.00000   3.09045  -0.40992  53.25702
     180 2002 12 21  0 11 47 279  3.9900    157.65708   1376.20859   1029.82400    -18.95998     32.64255     -0.25649    177.8    149.5      6.6     -5.5    526.7     76.8    154.4    154.4 154.35786 154.35786   0.00000   0.00000   0.00000   0.00000   3.09016  -0.40992  53.21831
     181 2002 12 21  0 11 51 269  3.9899    157.65709   1376.33720   1029.85709    -19.01684     31.85410     -0.27906    177.8    149.5      6.6     -5.5    527.0     76.9    154.4    154.4 154.35786 154.35786   0.00000   0.00000   0.00000   0.00000   3.08987  -0.40992  53.22213
     182 2002 12 21  0 11 55 259  3.9899    157.65715   1376.46779   1029.89374    -19.05725     31.09302     -0.29797    177.8    149.5      6.6     -5.6    527.3     77.1    154.4    154.4 154.35786 154.35786   0.00000   0.00000   0.00000   0.00000   3.08958  -0.40992  53.19752
     183 2002 12 21  0 11 59 249  3.9899    157.65733   1376.59994   1029.93395    -19.08592     30.35926     -0.31348    177.8    149.5      6.7     -5.7    527.6     77.2    154.4    154.4 154.35786 154.35786   0.00000   0.00000   0.00000   0.00000   3.08929  -0.40992  53.21153
     184 2002 12 21  0 12  3 239  3.9899    157.65779   1376.73339   1029.97775    -19.10786     29.65291     -0.32531    177.8    149.5      6.6     -5.8    527.7     77.3    154.4    154.4 154.35786 154.35786   0.00000   0.00000   0.00000   0.00000   3.08900  -0.40992  53.17309
     185 2002 12 21  0 12  7 229  3.9900    157.65823   1376.90180   1030.02698    -19.12740     28.97476     -0.33358    177.8    149.5      6.6     -5.9    527.7     77.4    160.2    160.2 160.16854 160.16854   0.00000   0.00000   0.00000   0.00000   3.08871  -0.40992  53.18095
     186 2002 12 21  0 12 11 193  3.9635    157.65847   1377.08000   1030.08011    -19.14983     28.32626     -0.34226    177.8    149.5      6.6     -5.9    527.7     77.5    160.2    160.2 160.16854 160.16854   0.00000   0.00000   0.00000   0.00000   3.08842  -0.40992  53.15620
     187 2002 12 21  0 12 15 156  3.9636    157.65873   1377.26043   1030.13717    -19.17791     27.70930     -0.34380    177.8    149.5      6.6     -6.0    527.7     77.6    160.2    160.2 160.16854 160.16854   0.00000   0.00000   0.00000   0.00000   3.08813  -0.40992  53.16378
     188 2002 12 21  0 12 19 120  3.9636    157.65923   1377.44532   1030.19791    -19.21304     27.12283     -0.34201    177.8    149.5      6.6     -6.1    527.7     77.7    160.2    160.2 160.16854 160.16854   0.00000   0.00000   0.00000   0.00000   3.08784  -0.40992  53.12739
     189 2002 12 21  0 12 23  83  3.9636    157.65978   1377.63488   1030.26228    -19.25730     26.56754     -0.33709    177.8    149.5      6.5     -6.1    527.7     77.7    160.2    160.2 160.16854 160.16854   0.00000   0.00000   0.00000   0.00000   3.08755  -0.40992  53.13768
     190 2002 12 21  0 12 27  47  3.9636    157.66004   1377.82939   1030.33023    -19.31189     26.04427     -0.32897    177.8    149.5      6.5     -6.2    527.7     77.8    160.2    160.2 160.16854 160.16854   0.00000   0.00000   0.00000   0.00000   3.08727  -0.40992  53.11294
     191 2002 12 21  0 12 31  11  3.9635    157.66019   1378.02918   1030.40171    -19.37747     25.55393     -0.31786    177.8    149.5      6.5     -6.3    527.7     77.9    160.2    160.2 160.16854 160.16854   0.00000   0.00000   0.00000   0.00000   3.08698  -0.40992  53.12203
     192 2002 12 21  0 12 34 974  3.9635    157.66050   1378.23457   1030.47669    -19.45418     25.09742     -0.30377    177.8    149.5      6.5     -6.3    527.7     78.0    160.2    160.2 160.16854 160.16854   0.00000   0.00000   0.00000   0.00000   3.08669  -0.40992  53.08482
     193 2002 12 21  0 12 38 937  3.9634    157.66100   1378.44586   1030.55511    -19.54161     24.67562     -0.28677    177.8    149.5      6.5     -6.4    527.7     78.1    160.2    160.2 160.16854 160.16854   0.00000   0.00000   0.00000   0.00000   3.08640  -0.40992  53.09038
     194 2002 12 21  0 12 42 901  3.9634    157.66144   1378.66335   1030.63693    -19.64117     24.28938     -0.26708    177.8    149.5      6.4     -6.5    527.7     78.1    160.2    160.2 160.16854 160.16854   0.00000   0.00000   0.00000   0.00000   3.08611  -0.40992  53.06581
     195 2002 12 21  0 12 46 864  3.9634    157.66176   1378.88730   1030.72207    -19.75766     23.93946     -0.24482    177.8    149.5      6.4     -6.5    527.7     78.2    160.2    160.2 160.16854 160.16854   0.00000   0.00000   0.00000   0.00000   3.08582  -0.40992  53.07615
     196 2002 12 21  0 12 50 828  3.9633    157.66220   1379.11799   1030.81050    -19.87690     23.62656     -0.22006    177.8    149.5      6.4     -6.6    527.7     78.3    160.2    160.2 160.16854 160.16854   0.00000   0.00000   0.00000   0.00000   3.08554  -0.40992  53.03846
     197 2002 12 21  0 12 54 791  3.9633    157.66284   1379.35569   1030.90212    -19.99603     23.35128     -0.19285    177.8    149.5      6.4     -6.7    527.7     78.4    160.2    160.2 160.16854 160.16854   0.00000   0.00000   0.00000   0.00000   3.08525  -0.40992  53.04613
     198 2002 12 21  0 12 58 754  3.9633    157.66352   1379.60065   1030.99686    -20.11200     23.11413     -0.16338    177.8    149.5      6.4     -6.7    527.7     78.5    160.2    160.2 160.16854 160.16854   0.00000   0.00000   0.00000   0.00000   3.08496  -0.40992  53.02176
     199 2002 12 21  0 13  2 717  3.9632    157.66399   1379.85314   1031.09465    -20.22155     22.91547     -0.13161    177.8    149.5      6.4     -6.8    527.6     78.6    160.2    160.2 160.16854 160.16854   0.00000   0.00000   0.00000   0.00000   3.08467  -0.40992  53.02915
     200 2002 12 21  0 13  6 681  3.9632    157.66417   1380.13394   1031.19660    -20.32157     22.75582     -0.09765    177.8    149.5      6.4     -6.8    527.4     78.7    167.7    167.7 167.69215 167.69215   0.00000   0.00000   0.00000   0.00000   3.08438  -0.40992  52.99122
     201 2002 12 21  0 13 10 631  3.9506    157.66446   1380.42785   1031.30156    -20.42758     22.63359     -0.06345    177.8    149.5      6.4     -6.8    527.2     78.8    167.7    167.7 167.69215 167.69215   0.00000   0.00000   0.00000   0.00000   3.08410  -0.40992  52.99884
     202 2002 12 21  0 13 14 582  3.9505    157.66491   1380.73109   1031.40953    -20.52369     22.55174     -0.02567    177.8    149.5      6.4     -6.8    527.1     79.0    167.7    167.7 167.69215 167.69215   0.00000   0.00000   0.00000   0.00000   3.08381  -0.40992  52.97454
     203 2002 12 21  0 13 18 532  3.9505    157.66524   1381.04496   1031.52026    -20.60610     22.50933      0.01398    177.8    149.5      6.4     -6.8    526.9     79.1    167.7    167.7 167.69215 167.69215   0.00000   0.00000   0.00000   0.00000   3.08352  -0.40992  52.98519
     204 2002 12 21  0 13 22 483  3.9505    157.66541   1381.36972   1031.63362    -20.67161     22.50616      0.05548    177.8    149.5      6.4     -6.8    526.8     79.2    167.7    167.7 167.69215 167.69215   0.00000   0.00000   0.00000   0.00000   3.08323  -0.40992  52.94788
     205 2002 12 21  0 13 26 433  3.9504    157.66580   1381.70561   1031.74948    -20.80466     22.54202      0.09858    177.8    149.5      6.4     -6.8    526.6     79.3    167.7    167.7 167.69215 167.69215   0.00000   0.00000   0.00000   0.00000   3.08295  -0.40992  52.95071
     206 2002 12 21  0 13 30 383  3.9503    157.66642   1382.05283   1031.86772    -20.92045     22.61657      0.14326    177.8    149.5      6.4     -6.8    526.5     79.5    167.7    167.7 167.69215 167.69215   0.00000   0.00000   0.00000   0.00000   3.08266  -0.40992  52.92575
     207 2002 12 21  0 13 34 334  3.9503    157.66709   1382.41150   1031.98819    -21.00457     22.72931      0.18933    177.8    149.5      6.5     -6.8    526.3     79.6    167.7    167.7 167.69215 167.69215   0.00000   0.00000   0.00000   0.00000   3.08237  -0.40992  52.93900
     208 2002 12 21  0 13 38 284  3.9503    157.66760   1382.78167   1032.11078    -21.05370     22.87966      0.23686    177.8    149.5      6.5     -6.8    526.2     79.7    167.7    167.7 167.69215 167.69215   0.00000   0.00000   0.00000   0.00000   3.08209  -0.40992  52.90048
     209 2002 12 21  0 13 42 234  3.9503    157.66785   1383.16332   1032.23536    -21.06557     23.06691      0.28563    177.8    149.5      6.5     -6.8    526.0     79.9    167.7    167.7 167.69215 167.69215   0.00000   0.00000   0.00000   0.00000   3.08180  -0.40992  52.90833
     210 2002 12 21  0 13 46 185  3.9503    157.66824   1383.55632   1032.36178    -21.03822     23.29022      0.33557    177.8    149.5      6.5     -6.8    525.9     80.0    167.7    167.7 167.69215 167.69215   0.00000   0.00000   0.00000   0.00000   3.08151  -0.40992  52.88377
     211 2002 12 21  0 13 50 135  3.9503    157.66876   1383.96052   1032.48992    -20.97012     23.54863      0.38647    177.8    149.5      6.5     -6.8    525.7     80.1    167.7    167.7 167.69215 167.69215   0.00000   0.00000   0.00000   0.00000   3.08122  -0.40992  52.88977
     212 2002 12 21  0 13 54  85  3.9502    157.66925   1384.37565   1032.61963    -20.86012     23.84106      0.43832    177.8    149.5      6.5     -6.8    525.6     80.2    167.7    167.7 167.69215 167.69215   0.00000   0.00000   0.00000   0.00000   3.08094  -0.40992  52.85096
     213 2002 12 21  0 13 58  35  3.9502    157.66958   1384.80143   1032.75078    -20.70751     24.16634      0.49108    177.8    149.5      6.5     -6.8    525.4     80.4    167.7    167.7 167.69215 167.69215   0.00000   0.00000   0.00000   0.00000   3.08065  -0.40992  52.86014
     214 2002 12 21  0 14  1 985  3.9502    157.66988   1385.23751   1032.88322    -20.51201     24.52322      0.54460    177.8    149.5      6.5     -6.8    525.3     80.5    167.7    167.7 167.69215 167.69215   0.00000   0.00000   0.00000   0.00000   3.08036  -0.40992  52.83519
     215 2002 12 21  0 14  5 936  3.9501    157.67032   1385.68362   1033.01687    -20.27406     24.91035      0.59881    177.8    149.5      6.5     -6.8    525.3     80.5    171.0    171.0 170.97340 170.97340   0.00000   0.00000   0.00000   0.00000   3.08007  -0.40992  52.84578
     216 2002 12 21  0 14  9 884  3.9486    157.67079   1386.13905   1033.15152    -19.99482     25.32574      0.65338    177.8    149.5      6.5     -6.8    525.3     80.5    171.0    171.0 170.97340 170.97340   0.00000   0.00000   0.00000   0.00000   3.07979  -0.40992  52.80706
     217 2002 12 21  0 14 13 833  3.9486    157.67118   1386.60327   1033.28705    -19.67430     25.76861      0.70861    177.8    149.5      6.5     -6.9    525.3     80.6    171.0    171.0 170.97340 170.97340   0.00000   0.00000   0.00000   0.00000   3.07950  -0.40992  52.81067
     218 2002 12 21  0 14 17 781  3.9486    157.67135   1387.07589   1033.42333    -19.31385     26.23738      0.76421    177.8    149.5      6.5     -6.9    525.2     80.6    171.0    171.0 170.97340 170.97340   0.00000   0.00000   0.00000   0.00000   3.07921  -0.40992  52.78604
     219 2002 12 21  0 14 21 730  3.9486    157.67161   1387.55639   1033.56020    -18.91521     26.73054      0.82013    177.8    149.5      6.4     -6.9    525.2     80.7    171.0    171.0 170.97340 170.97340   0.00000   0.00000   0.00000   0.00000   3.07893  -0.40992  52.79743
     220 2002 12 21  0 14 25 678  3.9486    157.67207   1388.04416   1033.69755    -18.48046     27.24659      0.87624    177.8    149.5      6.4     -6.9    525.2     80.7    171.0    171.0 170.97340 170.97340   0.00000   0.00000   0.00000   0.00000   3.07864  -0.40992  52.75848
     221 2002 12 21  0 14 29 627  3.9486    157.67251   1388.53861   1033.83524    -18.01199     27.78399      0.93262    177.8    149.5      6.4     -6.9    525.2     80.8    171.0    171.0 170.97340 170.97340   0.00000   0.00000   0.00000   0.00000   3.07835  -0.40992  52.76432
     222 2002 12 21  0 14 33 576  3.9486    157.67278   1389.03912   1033.97312    -17.51250     28.34121      0.98899    177.8    149.5      6.4     -7.0    525.2     80.8    171.0    171.0 170.97340 170.97340   0.00000   0.00000   0.00000   0.00000   3.07806  -0.40992  52.74001
     223 2002 12 21  0 14 37 524  3.9486    157.67306   1389.54502   1034.11108    -16.98490     28.91672      1.04531    177.8    149.5      6.4     -7.0    525.1     80.8    171.0    171.0 170.97340 170.97340   0.00000   0.00000   0.00000   0.00000   3.07778  -0.40992  52.74838
     224 2002 12 21  0 14 41 473  3.9486    157.67347   1390.05567   1034.24898    -16.43231     29.50899      1.10150    177.8    149.5      6.4     -7.0    525.1     80.9    171.0    171.0 170.97340 170.97340   0.00000   0.00000   0.00000   0.00000   3.07749  -0.40992  52.70948
     225 2002 12 21  0 14 45 421  3.9485    157.67394   1390.57038   1034.38671    -15.85803     30.11652      1.15750    177.8    149.5      6.3     -7.0    525.1     80.9    171.0    171.0 170.97340 170.97340   0.00000   0.00000   0.00000   0.00000   3.07720  -0.40992  52.71538
     226 2002 12 21  0 14 49 370  3.9485    157.67437   1391.08848   1034.52413    -15.26548     30.73783      1.21318    177.8    149.5      6.3     -7.0    525.1     81.0    171.0    171.0 170.97340 170.97340   0.00000   0.00000   0.00000   0.00000   3.07692  -0.40992  52.69142
     227 2002 12 21  0 14 53 318  3.9484    157.67474   1391.60930   1034.66114    -14.65821     31.37187      1.26845    177.8    149.5      6.3     -7.1    525.1     81.0    171.0    171.0 170.97340 170.97340   0.00000   0.00000   0.00000   0.00000   3.07663  -0.40992  52.69942
     228 2002 12 21  0 14 57 267  3.9484    157.67507   1392.13218   1034.79762    -14.03975     32.01707      1.32338    177.8    149.5      6.3     -7.1    525.0     81.0    171.0    171.0 170.97340 170.97340   0.00000   0.00000   0.00000   0.00000   3.07634  -0.40992  52.66015
     229 2002 12 21  0 15  1 215  3.9484    157.67548   1392.65650   1034.93348    -13.41367     32.67212      1.37777    177.8    149.5      6.3     -7.1    525.0     81.1    171.0    171.0 170.97340 170.97340   0.00000   0.00000   0.00000   0.00000   3.07605  -0.40992  52.67013
     230 2002 12 21  0 15  5 163  3.9483    157.67595   1393.18651   1035.06895    -12.78344     33.33576      1.43164    177.8    149.5      6.3     -7.1    524.9     81.2    167.2    167.2 167.16933 167.16933   0.00000   0.00000   0.00000   0.00000   3.07577  -0.40992  52.64650
     231 2002 12 21  0 15  9 109  3.9460    157.67643   1393.71774   1035.20365    -12.40447     34.00568      1.48449    177.8    149.5      6.3     -7.1    524.8     81.3    167.2    167.2 167.16933 167.16933   0.00000   0.00000   0.00000   0.00000   3.07548  -0.40992  52.64985
     232 2002 12 21  0 15 13  55  3.9460    157.67686   1394.24885   1035.33750    -12.30117     34.68195      1.53681    177.8    149.5      6.3     -7.1    524.7     81.4    167.2    167.2 167.16933 167.16933   0.00000   0.00000   0.00000   0.00000   3.07519  -0.40992  52.61036
     233 2002 12 21  0 15 17   1  3.9460    157.67729   1394.77950   1035.47036    -12.19891     35.36323      1.58845    177.8    149.5      6.3     -7.1    524.6     81.5    167.2    167.2 167.16933 167.16933   0.00000   0.00000   0.00000   0.00000   3.07491  -0.40992  52.62292
     234 2002 12 21  0 15 20 947  3.9460    157.67776   1395.30915   1035.60218    -12.09143     36.04843      1.63917    177.8    149.5      6.3     -7.1    524.5     81.5    167.2    167.2 167.16933 167.16933   0.00000   0.00000   0.00000   0.00000   3.07462  -0.40992  52.59888
     235 2002 12 21  0 15 24 893  3.9460    157.67828   1395.83728   1035.73284    -11.97857     36.73655      1.68908    177.8    149.5      6.3     -7.1    524.4     81.6    167.2    167.2 167.16933 167.16933   0.00000   0.00000   0.00000   0.00000   3.07433  -0.40992  52.60959
     236 2002 12 21  0 15 28 840  3.9460    157.67881   1396.36342   1035.86229    -11.86020     37.42664      1.73804    177.8    149.5      6.3     -7.0    524.3     81.7    167.2    167.2 167.16933 167.16933   0.00000   0.00000   0.00000   0.00000   3.07405  -0.40992  52.57043
     237 2002 12 21  0 15 32 785  3.9460    157.67929   1396.88710   1035.99044    -11.73630     38.11779      1.78602    177.8    149.5      6.3     -7.0    524.2     81.8    167.2    167.2 167.16933 167.16933   0.00000   0.00000   0.00000   0.00000   3.07376  -0.40992  52.57264
     238 2002 12 21  0 15 36 731  3.9459    157.67972   1397.40791   1036.11724    -11.60688     38.80914      1.83290    177.8    149.5      6.3     -7.0    524.1     81.9    167.2    167.2 167.16933 167.16933   0.00000   0.00000   0.00000   0.00000   3.07347  -0.40992  52.54865
     239 2002 12 21  0 15 40 677  3.9459    157.68017   1397.92545   1036.24261    -11.47208     39.49987      1.87866    177.8    149.5      6.3     -7.0    524.0     82.0    167.2    167.2 167.16933 167.16933   0.00000   0.00000   0.00000   0.00000   3.07318  -0.40992  52.56244
     240 2002 12 21  0 15 44 623  3.9459    157.68067   1398.43936   1036.36652    -11.33207     40.18920      1.92327    177.8    149.5      6.3     -7.0    523.9     82.1    167.2    167.2 167.16933 167.16933   0.00000   0.00000   0.00000   0.00000   3.07290  -0.40992  52.52265
     241 2002 12 21  0 15 48 569  3.9458    157.68123   1398.94929   1036.48889    -11.18712     40.87640      1.96671    177.8    149.5      6.3     -7.0    523.8     82.2    167.2    167.2 167.16933 167.16933   0.00000   0.00000   0.00000   0.00000   3.07261  -0.40992  52.53206
     242 2002 12 21  0 15 52 515  3.9458    157.68179   1399.45495   1036.60971    -11.03753     41.56075      2.00889    177.8    149.5      6.3     -7.0    523.7     82.3    167.2    167.2 167.16933 167.16933   0.00000   0.00000   0.00000   0.00000   3.07232  -0.40992  52.50899
     243 2002 12 21  0 15 56 461  3.9458    157.68232   1399.95609   1036.72891    -10.88371     42.24162      2.04970    177.8    149.5      6.3     -7.0    523.6     82.3    167.2    167.2 167.16933 167.16933   0.00000   0.00000   0.00000   0.00000   3.07204  -0.40992  52.51281
     244 2002 12 21  0 16  0 406  3.9457    157.68283   1400.45246   1036.84646    -10.72608     42.91836      2.08916    177.8    149.5      6.3     -7.0    523.4     82.4    167.2    167.2 167.16933 167.16933   0.00000   0.00000   0.00000   0.00000   3.07175  -0.40992  52.47305
     245 2002 12 21  0 16  4 352  3.9457    157.68336   1400.94167   1036.96227    -10.56514     43.59038      2.12725    177.8    149.5      6.3     -7.0    523.2     82.6    170.3    170.3 170.27708 170.27708   0.00000   0.00000   0.00000   0.00000   3.07146  -0.40992  52.48579
     246 2002 12 21  0 16  8 299  3.9472    157.68391   1401.42518   1037.07637    -10.40141     44.25751      2.16417    177.8    149.5      6.3     -7.0    522.9     82.7    170.3    170.3 170.27708 170.27708   0.00000   0.00000   0.00000   0.00000   3.07118  -0.40992  52.46247
     247 2002 12 21  0 16 12 246  3.9472    157.68448   1401.90329   1037.18872    -10.23546     44.91856      2.19946    177.8    149.5      6.3     -7.0    522.7     82.8    170.3    170.3 170.27708 170.27708   0.00000   0.00000   0.00000   0.00000   3.07089  -0.40992  52.47283
     248 2002 12 21  0 16 16 194  3.9472    157.68502   1402.37579   1037.29932    -10.06789     45.57316      2.23328    177.8    149.5      6.3     -7.1    522.5     82.9    170.3    170.3 170.27708 170.27708   0.00000   0.00000   0.00000   0.00000   3.07060  -0.40992  52.43380
     249 2002 12 21  0 16 20 141  3.9472    157.68554   1402.84267   1037.40815     -9.89933     46.22082      2.26556    177.8    149.5      6.4     -7.1    522.2     83.0    170.3    170.3 170.27708 170.27708   0.00000   0.00000   0.00000   0.00000   3.07031  -0.40992  52.43741
     250 2002 12 21  0 16 24  88  3.9471    157.68604   1403.30390   1037.51521     -9.73044     46.86095      2.29629    177.8    149.5      6.4     -7.1    522.0     83.1    170.3    170.3 170.27708 170.27708   0.00000   0.00000   0.00000   0.00000   3.07003  -0.40992  52.41454
     251 2002 12 21  0 16 28  35  3.9471    157.68657   1403.75950   1037.62048     -9.56186     47.49314      2.32548    177.8    149.5      6.4     -7.1    521.7     83.3    170.3    170.3 170.27708 170.27708   0.00000   0.00000   0.00000   0.00000   3.06974  -0.40992  52.42811
     252 2002 12 21  0 16 31 982  3.9471    157.68713   1404.20948   1037.72395     -9.57741     48.11689      2.35326    177.8    149.5      6.4     -7.1    521.5     83.4    170.3    170.3 170.27708 170.27708   0.00000   0.00000   0.00000   0.00000   3.06945  -0.40992  52.38869
     253 2002 12 21  0 16 35 929  3.9470    157.68771   1404.65390   1037.82563     -9.62703     48.73182      2.37942    177.8    149.5      6.4     -7.1    521.2     83.5    170.3    170.3 170.27708 170.27708   0.00000   0.00000   0.00000   0.00000   3.06917  -0.40992  52.39631
     254 2002 12 21  0 16 39 876  3.9470    157.68830   1405.09287   1037.92552     -9.67480     49.33753      2.40391    177.8    149.5      6.5     -7.2    521.0     83.6    170.3    170.3 170.27708 170.27708   0.00000   0.00000   0.00000   0.00000   3.06888  -0.40992  52.37418
     255 2002 12 21  0 16 43 823  3.9470    157.68891   1405.52650   1038.02361     -9.72032     49.93365      2.42680    177.8    149.5      6.5     -7.2    520.7     83.7    170.3    170.3 170.27708 170.27708   0.00000   0.00000   0.00000   0.00000   3.06859  -0.40992  52.38211
     256 2002 12 21  0 16 47 770  3.9469    157.68956   1405.95490   1038.11991     -9.76324     50.51981      2.44815    177.8    149.5      6.5     -7.2    520.5     83.8    170.3    170.3 170.27708 170.27708   0.00000   0.00000   0.00000   0.00000   3.06831  -0.40992  52.34253
     257 2002 12 21  0 16 51 717  3.9469    157.69023   1406.37816   1038.21443     -9.80323     51.09566      2.46795    177.8    149.5      6.5     -7.2    520.2     84.0    170.3    170.3 170.27708 170.27708   0.00000   0.00000   0.00000   0.00000   3.06802  -0.40992  52.35522
     258 2002 12 21  0 16 55 664  3.9468    157.69090   1406.79643   1038.30720     -9.84001     51.66084      2.48604    177.8    149.5      6.6     -7.2    520.0     84.1    170.3    170.3 170.27708 170.27708   0.00000   0.00000   0.00000   0.00000   3.06773  -0.40992  52.33338
     259 2002 12 21  0 16 59 611  3.9468    157.69154   1407.20986   1038.39820     -9.87337     52.21502      2.50258    177.8    149.5      6.6     -7.2    519.7     84.2    170.3    170.3 170.27708 170.27708   0.00000   0.00000   0.00000   0.00000   3.06744  -0.40992  52.34179
     260 2002 12 21  0 17  3 557  3.9468    157.69213   1407.61860   1038.48748     -9.90311     52.75786      2.51768    177.8    149.5      6.6     -7.2    520.0     84.2    170.3    170.3 170.27708 170.27708   0.00000   0.00000   0.00000   0.00000   3.06716  -0.40992  52.30274
     261 2002 12 21  0 17  7 504  3.9467    157.69269   1408.02691   1038.57538     -9.92911     53.28916      2.53127    177.8    149.5      6.6     -7.2    520.3     84.3    179.3    179.3 179.25554 179.25554   0.00000   0.00000   0.00000   0.00000   3.06687  -0.40992  52.31134
     262 2002 12 21  0 17 11 447  3.9427    157.69327   1408.43151   1038.66162     -9.95119     53.80716      2.54267    177.8    149.5      6.5     -7.1    520.5     84.3    179.3    179.3 179.25554 179.25554   0.00000   0.00000   0.00000   0.00000   3.06658  -0.40992  52.28990
     263 2002 12 21  0 17 15 390  3.9427    157.69386   1408.83181   1038.74627     -9.96957     54.31354      2.55311    177.8    149.5      6.5     -7.1    520.8     84.3    179.3    179.3 179.25554 179.25554   0.00000   0.00000   0.00000   0.00000   3.06630  -0.40992  52.30105
     264 2002 12 21  0 17 19 332  3.9427    157.69448   1409.22830   1038.82933     -9.98413     54.80763      2.56211    177.8    149.5      6.5     -7.1    521.1     84.3    179.3    179.3 179.25554 179.25554   0.00000   0.00000   0.00000   0.00000   3.06601  -0.40992  52.26286
     265 2002 12 21  0 17 23 275  3.9427    157.69511   1409.62111   1038.91080     -9.99489     55.28916      2.56960    177.8    149.5      6.5     -7.0    521.4     84.3    179.3    179.3 179.25554 179.25554   0.00000   0.00000   0.00000   0.00000   3.06572  -0.40992  52.26793
     266 2002 12 21  0 17 27 218  3.9427    157.69575   1410.01033   1038.99073    -10.00190     55.75790      2.57557    177.8    149.5      6.5     -7.0    521.7     84.4    179.3    179.3 179.25554 179.25554   0.00000   0.00000   0.00000   0.00000   3.06544  -0.40992  52.24677
     267 2002 12 21  0 17 31 160  3.9426    157.69640   1410.39604   1039.06912    -10.00528     56.21363      2.58008    177.8    149.5      6.5     -7.0    522.0     84.4    179.3    179.3 179.25554 179.25554   0.00000   0.00000   0.00000   0.00000   3.06515  -0.40992  52.26123
     268 2002 12 21  0 17 35 103  3.9426    157.69706   1410.77829   1039.14601    -10.00517     56.65617      2.58315    177.8    149.5      6.5     -6.9    522.3     84.4    179.3    179.3 179.25554 179.25554   0.00000   0.00000   0.00000   0.00000   3.06486  -0.40992  52.22244
     269 2002 12 21  0 17 39  46  3.9426    157.69771   1411.15710   1039.22142    -10.00172     57.08535      2.58477    177.8    149.5      6.5     -6.9    522.6     84.4    179.3    179.3 179.25554 179.25554   0.00000   0.00000   0.00000   0.00000   3.06458  -0.40992  52.23021
     270 2002 12 21  0 17 42 988  3.9425    157.69833   1411.53251   1039.29539     -9.99514     57.50101      2.58512    177.8    149.5      6.4     -6.9    522.9     84.5    179.3    179.3 179.25554 179.25554   0.00000   0.00000   0.00000   0.00000   3.06429  -0.40992  52.20971
     271 2002 12 21  0 17 46 931  3.9425    157.69892   1411.90452   1039.36794     -9.98564     57.90302      2.58399    177.8    149.5      6.4     -6.8    523.2     84.5    179.3    179.3 179.25554 179.25554   0.00000   0.00000   0.00000   0.00000   3.06400  -0.40992  52.22007
     272 2002 12 21  0 17 50 873  3.9424    157.69950   1412.27312   1039.43910     -9.97347     58.29123      2.58157    177.8    149.5      6.4     -6.8    523.5     84.5    179.3    179.3 179.25554 179.25554   0.00000   0.00000   0.00000   0.00000   3.06372  -0.40992  52.18127
     273 2002 12 21  0 17 54 815  3.9424    157.70008   1412.63822   1039.50890     -9.95889     58.66555      2.57783    177.8    149.5      6.4     -6.8    523.8     84.5    179.3    179.3 179.25554 179.25554   0.00000   0.00000   0.00000   0.00000   3.06343  -0.40992  52.19287
     274 2002 12 21  0 17 58 758  3.9424    157.70068   1412.99973   1039.57740     -9.94216     59.02588      2.57274    177.8    149.5      6.4     -6.8    524.1     84.5    179.3    179.3 179.25554 179.25554   0.00000   0.00000   0.00000   0.00000   3.06314  -0.40992  52.17293
     275 2002 12 21  0 18  2 700  3.9423    157.70130   1413.35760   1039.64460     -9.92358     59.37212      2.56639    177.8    149.5      6.4     -6.7    524.0     84.6    179.3    179.3 179.25554 179.25554   0.00000   0.00000   0.00000   0.00000   3.06286  -0.40992  52.17845
     276 2002 12 21  0 18  6 642  3.9423    157.70194   1413.70416   1039.71020     -9.90347     59.70407      2.55889    177.8    149.5      6.4     -6.7    523.8     84.6    179.3    179.3 179.28116 179.28116   0.00000   0.00000   0.00000   0.00000   3.06257  -0.40992  52.13936
     277 2002 12 21  0 18 10 590  3.9475    157.70259   1414.04497   1039.77449     -9.88235     60.02265      2.55095    177.8    149.5      6.4     -6.8    523.5     84.7    179.3    179.3 179.28116 179.28116   0.00000   0.00000   0.00000   0.00000   3.06228  -0.40992  52.15437
     278 2002 12 21  0 18 14 537  3.9474    157.70326   1414.38126   1039.83750     -9.86019     60.32566      2.54109    177.8    149.5      6.4     -6.8    523.3     84.7    179.3    179.3 179.28116 179.28116   0.00000   0.00000   0.00000   0.00000   3.06200  -0.40992  52.13387
     279 2002 12 21  0 18 18 485  3.9474    157.70396   1414.71240   1039.89933     -9.83739     60.61371      2.53006    177.8    149.5      6.4     -6.8    523.0     84.7    179.3    179.3 179.28116 179.28116   0.00000   0.00000   0.00000   0.00000   3.06171  -0.40992  52.14769
     280 2002 12 21  0 18 22 432  3.9474    157.70467   1415.03831   1039.96003     -9.81424     60.88674      2.51792    177.8    149.5      6.4     -6.8    522.7     84.8    179.3    179.3 179.28116 179.28116   0.00000   0.00000   0.00000   0.00000   3.06142  -0.40992  52.10869
     281 2002 12 21  0 18 26 379  3.9473    157.70539   1415.35885   1040.01963     -9.79103     61.14468      2.50474    177.8    149.5      6.4     -6.8    522.5     84.8    179.3    179.3 179.28116 179.28116   0.00000   0.00000   0.00000   0.00000   3.06113  -0.40992  52.11314
     282 2002 12 21  0 18 30 327  3.9473    157.70611   1415.67391   1040.07817     -9.76802     61.38743      2.49051    177.8    149.5      6.5     -6.8    522.2     84.9    179.3    179.3 179.28116 179.28116   0.00000   0.00000   0.00000   0.00000   3.06085  -0.40992  52.09288
     283 2002 12 21  0 18 34 274  3.9473    157.70681   1415.98335   1040.13569     -9.74546     61.61491      2.47527    177.8    149.5      6.5     -6.8    522.0     84.9    179.3    179.3 179.28116 179.28116   0.00000   0.00000   0.00000   0.00000   3.06056  -0.40992  52.10910
     284 2002 12 21  0 18 38 221  3.9472    157.70751   1416.28703   1040.19223     -9.72360     61.82701      2.45904    177.8    149.5      6.5     -6.8    521.7     84.9    179.3    179.3 179.28116 179.28116   0.00000   0.00000   0.00000   0.00000   3.06027  -0.40992  52.06971
     285 2002 12 21  0 18 42 168  3.9472    157.70819   1416.58485   1040.24783     -9.70266     62.02363      2.44183    177.8    149.5      6.5     -6.8    521.5     85.0    179.3    179.3 179.28116 179.28116   0.00000   0.00000   0.00000   0.00000   3.05999  -0.40992  52.08110
     286 2002 12 21  0 18 46 115  3.9472    157.70887   1416.87663   1040.30252     -9.68284     62.20466      2.42375    177.8    149.5      6.5     -6.8    521.2     85.0    179.3    179.3 179.28116 179.28116   0.00000   0.00000   0.00000   0.00000   3.05970  -0.40992  52.06174
     287 2002 12 21  0 18 50  63  3.9471    157.70954   1417.16210   1040.35634     -9.66430     62.37001      2.40482    177.7    149.5      6.5     -6.8    521.0     85.0    179.3    179.3 179.28116 179.28116   0.00000   0.00000   0.00000   0.00000   3.05941  -0.40992  52.06810
     288 2002 12 21  0 18 54  10  3.9471    157.71021   1417.44135   1040.40933     -9.64722     62.51953      2.38513    177.7    149.5      6.5     -6.8    520.7     85.1    179.3    179.3 179.28116 179.28116   0.00000   0.00000   0.00000   0.00000   3.05913  -0.40992  52.02867
     289 2002 12 21  0 18 57 957  3.9471    157.71089   1417.71440   1040.46151     -9.63170     62.65310      2.36461    177.7    149.5      6.5     -6.8    520.4     85.1    179.3    179.3 179.28116 179.28116   0.00000   0.00000   0.00000   0.00000   3.05884  -0.40992  52.04357
     290 2002 12 21  0 19  1 904  3.9470    157.71160   1417.98127   1040.51294     -9.62134     62.77057      2.34340    177.7    149.5      6.5     -6.8    520.5     85.1    179.3    179.3 179.28116 179.28116   0.00000   0.00000   0.00000   0.00000   3.05855  -0.40992  52.02411
     291 2002 12 21  0 19  5 851  3.9470    157.71232   1418.24308   1040.56380     -9.64022     62.87184      2.32151    177.7    149.5      6.5     -6.8    520.8     85.1    175.1    175.1 175.11261 175.11261   0.00000   0.00000   0.00000   0.00000   3.05826  -0.40992  52.03642
     292 2002 12 21  0 19  9 797  3.9464    157.71305   1418.49869   1040.61398     -9.65947     62.95659      2.29881    177.7    149.5      6.5     -6.7    521.2     85.1    175.1    175.1 175.11261 175.11261   0.00000   0.00000   0.00000   0.00000   3.05798  -0.40992  51.99758
     293 2002 12 21  0 19 13 743  3.9464    157.71377   1418.74802   1040.66352     -9.67904     63.02490      2.27557    177.7    149.5      6.5     -6.7    521.5     85.1    175.1    175.1 175.11261 175.11261   0.00000   0.00000   0.00000   0.00000   3.05769  -0.40992  52.00420
     294 2002 12 21  0 19 17 690  3.9464    157.71450   1418.99111   1040.71246     -9.69868     63.07654      2.25187    177.7    149.5      6.5     -6.7    521.9     85.1    175.1    175.1 175.11261 175.11261   0.00000   0.00000   0.00000   0.00000   3.05740  -0.40992  51.98522
     295 2002 12 21  0 19 21 636  3.9463    157.71524   1419.22798   1040.76083     -9.71810     63.11135      2.22760    177.7    149.5      6.4     -6.7    522.2     85.0    175.1    175.1 175.11261 175.11261   0.00000   0.00000   0.00000   0.00000   3.05712  -0.40992  52.00029
     296 2002 12 21  0 19 25 582  3.9463    157.71598   1419.45864   1040.80868     -9.73705     63.12916      2.20290    177.7    149.5      6.4     -6.6    522.6     85.0    175.1    175.1 175.11261 175.11261   0.00000   0.00000   0.00000   0.00000   3.05683  -0.40992  51.96152
     297 2002 12 21  0 19 29 529  3.9463    157.71673   1419.68314   1040.85604     -9.75528     63.12982      2.17764    177.7    149.5      6.4     -6.6    522.9     85.0    175.1    175.1 175.11261 175.11261   0.00000   0.00000   0.00000   0.00000   3.05654  -0.40992  51.96810
     298 2002 12 21  0 19 33 475  3.9462    157.71747   1419.90153   1040.90294     -9.77255     63.11319      2.15207    177.7    149.5      6.4     -6.6    523.2     85.0    175.1    175.1 175.11261 175.11261   0.00000   0.00000   0.00000   0.00000   3.05626  -0.40992  51.94922
     299 2002 12 21  0 19 37 421  3.9462    157.71821   1420.11386   1040.94942     -9.78867     63.07913      2.12618    177.7    149.5      6.4     -6.5    523.6     85.0    175.1    175.1 175.11261 175.11261   0.00000   0.00000   0.00000   0.00000   3.05597  -0.40992  51.96404
     300 2002 12 21  0 19 41 367  3.9462    157.71896   1420.32019   1040.99552     -9.80342     63.02752      2.09993    177.7    149.5      6.4     -6.5    523.9     85.0    175.1    175.1 175.11261 175.11261   0.00000   0.00000   0.00000   0.00000   3.05568  -0.40992  51.92434
     301 2002 12 21  0 19 45 313  3.9461    157.71973   1420.52057   1041.04127     -9.81662     62.95825      2.07331    177.7    149.5      6.4     -6.5    524.3     84.9    175.1    175.1 175.11261 175.11261   0.00000   0.00000   0.00000   0.00000   3.05539  -0.40992  51.93889
     302 2002 12 21  0 19 49 260  3.9461    157.72054   1420.71512   1041.08671     -9.82810     62.87122      2.04648    177.7    149.5      6.3     -6.5    524.6     84.9    175.1    175.1 175.11261 175.11261   0.00000   0.00000   0.00000   0.00000   3.05511  -0.40992  51.92033
     303 2002 12 21  0 19 53 206  3.9461    157.72136   1420.90394   1041.13187     -9.83770     62.76634      2.01944    177.7    149.5      6.3     -6.4    525.0     84.9    175.1    175.1 175.11261 175.11261   0.00000   0.00000   0.00000   0.00000   3.05482  -0.40992  51.93067
     304 2002 12 21  0 19 57 152  3.9460    157.72220   1421.08714   1041.17679     -9.84532     62.64355      1.99220    177.7    149.5      6.3     -6.4    525.3     84.9    175.1    175.1 175.11261 175.11261   0.00000   0.00000   0.00000   0.00000   3.05453  -0.40992  51.89144
     305 2002 12 21  0 20  0   0  2.8478    157.72442   1421.32316   1041.20345     -9.78080     62.32556      1.79125    177.7    149.5      6.3     -6.4    525.6     84.9    175.1    175.1 175.11261 175.11261   0.00000   0.00000   0.00000   0.00000   3.05433  -0.40992  51.90004
